352.2          20         1.8    0.89
RFfreq (MHz) |  Ein (kV) | KP  | rho_over_r0
V(kV)  | phi | m   | a(cm)
60 -90.00 1.000 1.53
60 -90.00 1.000 0.53
60 -90.00 1.000 0.33
60 -90.00 1.000 0.28
60 -90.00 1.000 0.28
60 -90.00 1.000 0.28
60 -90.00 1.000 0.28
60 -90.00 1.000 0.28
60 -90.00 1.001 0.28
60 -90.00 1.001 0.28
60 -90.00 1.002 0.28
60 -90.00 1.002 0.28
60 -90.00 1.003 0.279
60 -90.00 1.004 0.279
60 -90.00 1.004 0.279
60 -90.00 1.005 0.279
60 -90.00 1.006 0.279
60 -90.00 1.008 0.279
60 -90.00 1.009 0.279
60 -90.00 1.010 0.279
60 -90.00 1.011 0.278
60 -90.00 1.013 0.278
60 -90.00 1.014 0.278
60 -90.00 1.016 0.278
60 -90.00 1.018 0.277
60 -90.00 1.020 0.277
60 -90.00 1.022 0.277
60 -90.00 1.024 0.277
60 -90.00 1.026 0.276
60 -90.00 1.028 0.276
60 -90.00 1.030 0.276
60 -90.00 1.032 0.275
60 -90.00 1.035 0.275
60 -90.00 1.037 0.275
60 -90.00 1.040 0.274
60 -90.00 1.043 0.274
60 -90.00 1.046 0.274
60 -90.00 1.048 0.273
60 -90.00 1.051 0.273
60 -90.00 1.054 0.272
60 -90.00 1.058 0.272
60 -90.00 1.061 0.271
60 -90.00 1.064 0.271
60 -90.00 1.068 0.271
60 -90.00 1.071 0.27
60 -89.00 1.075 0.27
60 -88.00 1.078 0.269
60 -87.00 1.082 0.269
60 -86.00 1.086 0.268
60 -85.00 1.090 0.268
60 -84.00 1.094 0.267
60 -83.00 1.098 0.267
60 -82.00 1.102 0.266
60 -81.00 1.107 0.265
60 -80.00 1.111 0.265
60 -79.00 1.116 0.264
60 -78.00 1.120 0.264
60 -77.00 1.125 0.263
60 -76.00 1.130 0.262
60 -75.00 1.134 0.262
60 -74.00 1.139 0.261
60 -73.00 1.144 0.261
60 -72.00 1.150 0.26
60 -71.00 1.155 0.259
60 -70.00 1.160 0.258
60 -69.00 1.165 0.258
60 -68.00 1.171 0.257
60 -67.00 1.176 0.256
60 -66.00 1.182 0.256
60 -65.00 1.188 0.255
60 -64.00 1.194 0.254
60 -63.00 1.200 0.253
60 -62.00 1.206 0.253
60 -61.00 1.212 0.252
60 -60.00 1.218 0.251
60 -59.00 1.224 0.25
60 -58.00 1.230 0.25
60 -57.00 1.237 0.249
60 -56.00 1.243 0.248
60 -55.00 1.250 0.247
60 -54.00 1.257 0.246
60 -53.00 1.264 0.246
60 -52.00 1.270 0.245
60 -51.00 1.277 0.244
60 -50.00 1.284 0.243
60 -49.71 1.292 0.242
60 -49.43 1.299 0.241
60 -49.14 1.306 0.241
60 -48.86 1.314 0.24
60 -48.57 1.321 0.239
60 -48.29 1.329 0.238
60 -48.00 1.336 0.237
60 -47.71 1.344 0.236
60 -47.43 1.352 0.235
60 -47.14 1.360 0.234
60 -46.86 1.368 0.234
60 -46.57 1.376 0.233
60 -46.29 1.384 0.232
60 -46.00 1.393 0.231
60 -45.71 1.401 0.23
60 -45.43 1.410 0.229
60 -45.14 1.418 0.228
60 -44.86 1.427 0.227
60 -44.57 1.436 0.226
60 -44.29 1.444 0.225
60 -44.00 1.453 0.224
60 -43.71 1.462 0.223
60 -43.43 1.472 0.222
60 -43.14 1.481 0.222
60 -42.86 1.490 0.221
60 -42.57 1.499 0.22
60 -42.29 1.509 0.219
60 -42.00 1.518 0.218
60 -41.71 1.528 0.217
60 -41.43 1.538 0.216
60 -41.14 1.548 0.215
60 -40.86 1.558 0.214
60 -40.57 1.568 0.213
60 -40.29 1.578 0.212
60 -40.00 1.588 0.211
60 -39.71 1.598 0.21
60 -39.43 1.608 0.209
60 -39.14 1.619 0.208
60 -38.86 1.629 0.207
60 -38.57 1.640 0.206
60 -38.29 1.651 0.205
60 -38.00 1.662 0.204
60 -37.71 1.672 0.203
60 -37.43 1.683 0.202
60 -37.14 1.694 0.201
60 -36.86 1.706 0.2
60 -36.57 1.717 0.199
60 -36.29 1.728 0.198
60 -36.00 1.740 0.197
60 -35.71 1.751 0.196
60 -35.43 1.763 0.195
60 -35.14 1.774 0.194
60 -34.86 1.786 0.193
60 -34.57 1.798 0.192
60 -34.29 1.810 0.191
60 -34.00 1.822 0.19
60 -33.71 1.834 0.189
60 -33.43 1.846 0.189
60 -33.14 1.859 0.188
60 -32.86 1.871 0.187
60 -32.57 1.884 0.186
60 -32.29 1.896 0.185
60 -32.00 1.909 0.184
60 -31.71 1.922 0.183
60 -31.43 1.934 0.182
60 -31.14 1.947 0.181
60 -30.86 1.960 0.18
60 -30.57 1.974 0.179
60 -30.29 1.987 0.178
60 -30.00 2.000 0.177
60 -30.00 2.000 0.177
60 -30.00 2.000 0.177
60 -30.00 2.000 0.177
60 -30.00 2.000 0.177
60 -30.00 2.000 0.177
60 -30.00 2.000 0.177
60 -30.00 2.000 0.177
60 -30.00 2.000 0.177
60 -30.00 2.000 0.177
60 -30.00 2.000 0.177
60 -30.00 2.000 0.177
60 -30.00 2.000 0.177
60 -30.00 2.000 0.177
60 -30.00 2.000 0.177
60 -30.00 2.000 0.177
60 -30.00 2.000 0.177
60 -30.00 2.000 0.177
60 -30.00 2.000 0.177
60 -30.00 2.000 0.177
60 -30.00 2.000 0.177
60 -30.00 2.000 0.177
